# Provided by T. Golan
# 
# Data used in GENIE for piN total cross sections where N is either p or n
# use Nuwro's implementation of Oset et al. model [Nucl. Phys. A484 (1998) 557-592] for pi+N elas, cex, and pi absorption
# finite range effects are not included (the results can be applied to any nucleus)
# pi-p = pi+n and pi-n = pi+p
# pi0-N is taken to be the average of pi+ and pi-
# KE is LAB energy in MeV, cross sections in mb, d = density in fm-3
# qel = (elastic + cex)
# 
#        d        KE       pi+n qel      pi+n fcex       pi+p qel      pi+p fcex        pi0 qel       pi0 fcex        pi abs
         0         0              0              0              0              0              0              0              0
         0        10        5.30348        4.17411        3.03015              0        4.16681        4.17348     0.00650105
         0        20        5.42315        4.21567        3.37674              0        4.39994        4.21441     0.00808914
         0        30        5.61786        4.30665        3.95702              0        4.78744        4.30479     0.00937511
         0        40         5.9226        4.47054        4.87493              0        5.39877         4.4682      0.0105296
         0        50          6.387        4.74059        6.27841              0         6.3327        4.73796      0.0116611
         0        60        7.08202        5.16426        8.37952              0        7.73077        5.16159      0.0128502
         0        70        8.10978        5.80977        11.4837              0        9.79676        5.80731      0.0141663
         0        80        9.61714        6.77514        16.0309              0         12.824        6.77308      0.0156775
         0        90        11.8133        8.19999        22.6481              0        17.2307        8.19846      0.0174456
         0       100         14.988        10.2775        32.2036              0        23.5958        10.2765      0.0195236
         0       110        19.5164        13.2578         45.822              0        32.6692        13.2573      0.0219301
         0       120        25.8133        17.4177        64.7479              0        45.2806         17.417      0.0245971
         0       130        34.1629        22.9466        89.8329              0        61.9979        22.9449      0.0272798
         0       140        44.3409        29.6951        120.404              0        82.3723        29.6906      0.0294617
         0       150        55.1346        36.8548        152.822              0        103.978        36.8457      0.0303857
         0       160         64.326        42.9472        180.433              0        122.379         42.932      0.0293998
         0       170        69.7482        46.5278        196.735              0        133.242        46.5063      0.0264901
         0       180         70.704        47.1321        199.637              0        135.171        47.1052      0.0223997
         0       190        68.1547        45.4007        192.023              0        130.089        45.3703      0.0181061
         0       200        63.6913        42.3943        178.665              0        121.178        42.3623      0.0142789
         0       210        58.6139        38.9797        163.462              0        111.038        38.9477      0.0111676
         0       220        53.6771        35.6597         148.68              0        101.178        35.6293     0.00875652
         0       230        49.2127        32.6558        135.312              0        92.2621        32.6279     0.00692707
         0       240        45.3124        30.0289        123.633              0        84.4727        30.0043     0.00554641
         0       250        41.9552        27.7653        113.581              0        77.7682        27.7443     0.00450095
         0       260        39.0781        25.8228        104.966              0        72.0221        25.8055     0.00370301
         0       270        36.6086        24.1532        97.5712              0        67.0899        24.1396     0.00308778
         0       280        34.4794        22.7118        91.1938              0        62.8366        22.7014      0.0026082
         0       290        32.6325        21.4599        85.6599              0        59.1462        21.4523     0.00223027
         0       300        31.0202        20.3657        80.8261              0        55.9232        20.3604     0.00192932
         0       310        29.6036        19.4034         76.576              0        53.0898        19.3998     0.00168731
         0       320        28.3516         18.552        72.8156              0        50.5836        18.5498     0.00149095
         0       330        27.2387        17.7949        69.4692              0         48.354        17.7936     0.00133032
         0       340        26.2446        17.1183        66.4753              0          46.36        17.1176     0.00119797
         0       350        25.3525        16.5111        63.7832              0        44.5678        16.5108      0.0010882
      0.01         0              0              0              0              0              0              0              0
      0.01        10        5.29064        3.94598        2.99163              0        4.14114        4.00354        1.02117
      0.01        20        5.38138        3.86861        3.25143              0        4.31641        3.92808       0.946383
      0.01        30        5.53713        3.84831        3.71484              0        4.62599        3.90441       0.983691
      0.01        40        5.78953        3.89574         4.4757              0        5.13261        3.95122        1.06581
      0.01        50        6.19201        4.04142        5.69345              0        5.94273        4.11194        1.18087
      0.01        60        6.81973         4.3306        7.59265              0        7.20619        4.44069        1.32895
      0.01        70        7.77988        4.82871         10.494              0        9.13695        5.00794        1.51502
      0.01        80        9.22776        5.62181        14.8628              0        12.0453        5.90904        1.76695
      0.01        90        11.3843        6.85291        21.3611              0        16.3727        7.28818        2.08542
      0.01       100        14.5451        8.70986        30.8748              0          22.71        9.33563        2.48011
      0.01       110        19.0529        11.4147        44.4317              0        31.7423        12.2725        2.96023
      0.01       120        25.1782        15.1549        62.8427              0        44.0105        16.2735        3.52105
      0.01       130        32.8602        19.9225        85.9248              0        59.3925        21.2991        4.12533
      0.01       140        41.4099        25.3195        111.611              0        76.5103        26.9033        4.68205
      0.01       150        49.5102        30.5366        135.949              0        92.7295        32.2324        5.04897
      0.01       160        55.7275         34.657        154.637              0        105.182        36.3525        5.09434
      0.01       170        59.1867        37.0856        165.051              0        112.119        38.6839        4.79259
      0.01       180        59.8589        37.7539        167.102              0        113.481        39.1928        4.24821
      0.01       190        58.3524        37.0099        162.616              0        110.484        38.2622        3.61482
      0.01       200        55.5013        35.3657        154.095              0        104.798        36.4311        3.00852
      0.01       210        52.0449         33.289        143.755              0        97.9001        34.1836        2.48441
      0.01       220         48.493        31.1108        133.127              0          90.81        31.8577        2.05446
      0.01       230        45.1322        29.0226         123.07              0        84.1011        29.6465        1.71018
      0.01       240        42.0897        27.1138        113.965              0        78.0273        27.6374        1.43673
      0.01       250        39.3979        25.4119        105.909              0        72.6536        25.8548        1.21937
      0.01       260        37.0415        23.9122        98.8566              0         67.949        24.2906         1.0456
      0.01       270         34.985        22.5958        92.7005              0        63.8427        22.9227       0.905546
      0.01       280        33.1877        21.4393        87.3187              0        60.2532         21.725       0.791624
      0.01       290        31.6106        20.4198        82.5941              0        57.1023        20.6723        0.69807
      0.01       300        30.2191        19.5164        78.4227              0        54.3209        19.7421       0.620521
      0.01       310        28.9837        18.7114        74.7162              0          51.85         18.915       0.555661
      0.01       320        27.8801        17.9898        71.4011              0        49.6406        18.1751       0.500956
      0.01       330        26.8881        17.3394        68.4172              0        47.6526        17.5092       0.454454
      0.01       340        25.9913        16.7502        65.7152              0        45.8532        16.9066       0.414636
      0.01       350        25.1764        16.2137         63.255              0        44.2157        16.3586       0.380314
      0.02         0              0              0              0              0              0              0              0
      0.02        10         5.2887        3.82968        2.98579              0        4.13724        3.91851        1.91196
      0.02        20        5.36949        3.69647        3.21575              0        4.29262        3.78828        1.70352
      0.02        30        5.50843         3.6244        3.62873              0        4.56858         3.7077        1.72782
      0.02        40        5.74397        3.62348        4.33903              0         5.0415        3.70661        1.84345
      0.02        50        6.12308        3.71698        5.48667              0        5.80488        3.81885        2.02328
      0.02        60        6.71338        3.94266         7.2736              0        6.99349        4.09081        2.26481
      0.02        70         7.6307        4.36716        10.0465              0         8.8386        4.60457        2.57538
      0.02        80        9.03541        5.06186        14.2858              0        11.6606        5.45266        3.02152
      0.02        90        11.1524        6.17062        20.6653              0        15.9088        6.78198         3.5961
      0.02       100        14.2736        7.87141        30.0603              0         22.167        8.77666        4.31436
      0.02       110        18.7097        10.3604        43.4021              0        31.0559        11.6323        5.19291
      0.02       120        24.6358        13.7706        61.2156              0        42.9257        15.4597        6.22231
      0.02       130        31.8316        18.0172        82.8391              0        57.3354        20.1196        7.33343
      0.02       140        39.5027        22.6724        105.889              0         72.696        25.1083        8.36137
      0.02       150        46.4672        27.0465         126.82              0        86.6434        29.6731        9.05403
      0.02       160        51.6629         30.475        142.443              0        97.0531        33.1292         9.1825
      0.02       170        54.5653        32.5829        151.186              0        102.876        35.1249        8.70195
      0.02       180        55.2499        33.3531        153.275              0        104.263        35.6886        7.78746
      0.02       190        54.1893        33.0258        150.127              0        102.158         35.107        6.69901
      0.02       200        51.9909         31.947        143.564              0        97.7772        33.7634        5.63797
      0.02       210        49.2066         30.448         135.24              0        92.2234        32.0127        4.70538
      0.02       220        46.2441        28.7841        126.381              0        86.3124        30.1232        3.92851
      0.02       230        43.3586        27.1213        117.749              0        80.5539        28.2656        3.29765
      0.02       240        40.6834        25.5521        109.746              0        75.2148        26.5321        2.79016
      0.02       250        38.2712        24.1179        102.529              0           70.4         24.961        2.38205
      0.02       260        36.1276        22.8294         96.115              0        66.1213        23.5595        2.05233
      0.02       270        34.2352        21.6813        90.4512              0        62.3432         22.318          1.784
      0.02       280        32.5667        20.6609        85.4557              0        59.0112        21.2205        1.56376
      0.02       290        31.0927         19.753        81.0404              0        56.0666        20.2486        1.38137
      0.02       300        29.7856        18.9426        77.1222              0        53.4539        19.3848        1.22898
      0.02       310        28.6206        18.2164         73.627              0        51.1238        18.6136        1.10056
      0.02       320        27.5768        17.5622        70.4912              0         49.034        17.9213       0.991439
      0.02       330        26.6361        16.9701        67.6612              0        47.1486        17.2965       0.898008
      0.02       340        25.7838        16.4316        65.0926              0        45.4382        16.7296       0.817432
      0.02       350        25.0076        15.9395        62.7485              0         43.878        16.2129       0.747476
      0.03         0              0              0              0              0              0              0              0
      0.03        10        5.28783        3.73571        2.98318              0         4.1355        3.84794        2.77488
      0.03        20        5.36318        3.56179        3.19682              0           4.28         3.6777        2.41913
      0.03        30        5.48995        3.45281         3.5733              0        4.53162        3.55438        2.41806
      0.03        40        5.70769        3.41537         4.2302              0        4.96895        3.51037        2.55469
      0.03        50        6.06964        3.47416        5.32633              0        5.69799        3.58902        2.78567
      0.03        60        6.64655        3.66588        7.07309              0        6.85982        3.83814        3.10509
      0.03        70        7.53705         4.0437        9.76555              0         8.6513          4.318        3.52202
      0.03        80        8.90482        4.66483         13.894              0        11.3994        5.12003        4.14851
      0.03        90        10.9814        5.67613        20.1521              0        15.5667        6.39925         4.9651
      0.03       100        14.0516        7.24459        29.3942              0        21.7229        8.33273        5.99004
      0.03       110        18.3901        9.54004        42.4434              0        30.4168        11.0897        7.24523
      0.03       120        24.0859        12.6491        59.5657              0        41.8258        14.7255        8.71393
      0.03       130        30.8056        16.4378        79.7612              0        55.2834        19.0335        10.2941
      0.03       140        37.7277        20.4879        100.564              0        69.1459        23.5022        11.7521
      0.03       150        43.8235        24.2245        118.889              0        81.3561         27.486        12.7417
      0.03       160        48.2942        27.1539        132.337              0        90.3157        30.4727         12.957
      0.03       170        50.8154        29.0251        139.937              0         95.376        32.2385        12.3412
      0.03       180        51.5048        29.8409         142.04              0        96.7724        32.8356        11.1255
      0.03       190        50.7466        29.7763        139.799              0        95.2726        32.4896        9.65372
      0.03       200        49.0099        29.0789         134.62              0        91.8151        31.4892        8.19747
      0.03       210        46.7253        27.9934        127.796              0        87.2608        30.1069        6.89933
      0.03       220        44.2244        26.7182        120.321              0        82.2729        28.5582        5.80368
      0.03       230        41.7292        25.3935        112.861              0        77.2951        26.9905        4.90327
      0.03       240        39.3682        24.1057          105.8              0        72.5843        25.4924        4.17109
      0.03       250        37.2029         22.901        99.3241              0        68.2635        24.1083        3.57655
      0.03       260        35.2521        21.7986        93.4883              0        64.3702        22.8541        3.09199
      0.03       270        33.5106        20.8019        88.2774              0         60.894        21.7294        2.69449
      0.03       280        31.9618        19.9057        83.6409              0        57.8013        20.7252        2.36586
      0.03       290        30.5841        19.1009        79.5146              0        55.0493        19.8293        2.09186
      0.03       300        29.3559        18.3774         75.833              0        52.5944        19.0283        1.86149
      0.03       310        28.2567        17.7251        72.5352              0        50.3959        18.3097        1.66618
      0.03       320        27.2686        17.1348        69.5667              0        48.4177        17.6624        1.49929
      0.03       330        26.3759        16.5983        66.8808              0        46.6283        17.0766        1.35561
      0.03       340        25.5654        16.1087        64.4375              0        45.0014        16.5438        1.23103
      0.03       350        24.8259        15.6601        62.2034              0        43.5147        16.0572        1.12231
      0.04         0              0              0              0              0              0              0              0
      0.04        10        5.28733        3.65354        2.98168              0         4.1345        3.78444        3.62244
      0.04        20         5.3592        3.44706        3.18491              0        4.27206        3.58157        3.11166
      0.04        30        5.47734        3.31019        3.53547              0        4.50641        3.42544        3.07811
      0.04        40        5.68023        3.24531        4.14782              0        4.91403        3.34732        3.22842
      0.04        50        6.02234        3.27569        5.18442              0        5.60338        3.39321        3.50256
      0.04        60        6.58086        3.43907        6.87602              0        6.72844        3.61768        3.89059
      0.04        70        7.46277        3.78951        9.54271              0        8.50274        4.08578        4.40227
      0.04        80        8.81034        4.35826        13.6105              0        11.2104        4.85922        5.20049
      0.04        90        10.8482        5.28881        19.7525              0        15.3003        6.09121        6.25011
      0.04       100        13.8589        6.74063        28.8162              0        21.3376        7.95867        7.56971
      0.04       110        18.0792        8.85797        41.5106              0        29.7949         10.605        9.18381
      0.04       120        23.5186         11.687        57.8639              0        40.6912        14.0361         11.065
      0.04       130        29.7646        15.0626         76.638              0        53.2013        18.0008        13.0765
      0.04       140         36.013        18.5952        95.4201              0        65.7165        22.0068        14.9204
      0.04       150        41.3886        21.8129        111.584              0        76.4861        25.5114        16.1714
      0.04       160        45.2906        24.3466        123.326              0        84.3084        28.1302        16.4666
      0.04       170        47.5213        26.0233        130.054              0        88.7879        29.7191        15.7451
      0.04       180        48.2133        26.8534        132.165              0        90.1894        30.3379         14.283
      0.04       190        47.6841        26.9673        130.611              0        89.1477         30.167        12.4885
      0.04       200        46.3065        26.5472         126.51              0        86.4083        29.4306        10.6896
      0.04       210         44.424        25.7768        120.892              0        82.6582         28.342        9.06523
      0.04       220        42.3089        24.8115        114.575              0        78.4419        27.0759        7.67747
      0.04       230        40.1526        23.7674        108.131              0        74.1419        25.7583        6.52422
      0.04       240        38.0743        22.7219        101.919              0        69.9964        24.4707        5.57699
      0.04       250        36.1379        21.7209        96.1291              0        66.1335        23.2588        4.80086
      0.04       260        34.3702         20.788        90.8428              0        62.6065         22.144        4.16315
      0.04       270        32.7751        19.9321        86.0709              0         59.423         21.132        3.63618
      0.04       280        31.3439        19.1534        81.7873              0        56.5656        20.2194        3.19759
      0.04       290        30.0618        18.4476        77.9479              0        54.0049        19.3986        2.82967
      0.04       300        28.9124        17.8082        74.5027              0        51.7076        18.6602        2.51856
      0.04       310        27.8792        17.2283        71.4027              0         49.641        17.9946         2.2534
      0.04       320        26.9471         16.701        68.6023              0        47.7747        17.3925        2.02569
      0.04       330        26.1027        16.2198        66.0612              0         46.082         16.846         1.8287
      0.04       340        25.3343        15.7792        63.7442              0        44.5393        16.3478        1.65712
      0.04       350        24.6319        15.3743        61.6214              0        43.1267        15.8918        1.50669
      0.05         0              0              0              0              0              0              0              0
      0.05        10          5.287        3.57899        2.98069              0        4.13384        3.72527        4.45971
      0.05        20        5.35645        3.34529        3.17664              0        4.26655        3.49438        3.78865
      0.05        30        5.46816        3.18652        3.50791              0        4.48803        3.31205         3.7177
      0.05        40        5.65908        3.10075        4.08435              0        4.87171        3.20731        3.87654
      0.05        50        5.98306          3.109        5.06661              0        5.52484        3.22593        4.18811
      0.05        60        6.51914         3.2476        6.69088              0        6.60501        3.42412        4.63811
      0.05        70        7.38129        3.57101        9.29828              0        8.33979        3.87186        5.23643
      0.05        80        8.72233        4.10221        13.3465              0        11.0344        4.63167        6.19964
      0.05        90        10.7373         4.9707        19.4201              0        15.0787        5.83163        7.47408
      0.05       100        13.6839        6.31862         28.291              0        20.9874        7.63196        9.07677
      0.05       110        17.7688        8.27023        40.5793              0        29.1741        10.1591        11.0315
      0.05       120        22.9318        10.8378        56.1035              0        39.5177        13.3775        13.2964
      0.05       130        28.7097        13.8394        73.4734              0        51.0916        17.0097        15.6984
      0.05       140        34.3452        16.9237        90.4167              0         62.381        20.5993        17.8802
      0.05       150        39.1066        19.7083        104.738              0        71.9222        23.6974        19.3527
      0.05       160        42.5444        21.9164        115.088              0        78.8162        26.0154        19.7151
      0.05       170        44.5434        23.4266        121.121              0        82.8322        27.4609        18.9101
      0.05       180        45.2369        24.2517        123.236              0        84.2366        28.0932        17.2495
      0.05       190        44.8896        24.4895        122.228              0        83.5586         28.058        15.1882
      0.05       200        43.8025        24.2761        118.998              0        81.4003        27.5316        13.0973
      0.05       210        42.2539        23.7512        114.382              0         78.318         26.684        11.1864
      0.05       220        40.4689        23.0368        109.055              0        74.7619        25.6571        9.53481
      0.05       230        38.6117        22.2281        103.509              0        71.0602        24.5582        8.14757
      0.05       240        36.7904        21.3925        98.0669              0        67.4286        23.4602        6.99707
      0.05       250        35.0679        20.5731        92.9193              0        63.9936        22.4081        6.04617
      0.05       260        33.4755        19.7949        88.1586              0         60.817        21.4257        5.25874
      0.05       270        32.0231        19.0702        83.8149              0         57.919        20.5227        4.60345
      0.05       280        30.7084        18.4029        79.8807              0        55.2946        19.7002        4.05456
      0.05       290        29.5221        17.7921        76.3287              0        52.9254        18.9544        3.59142
      0.05       300        28.4523        17.2346        73.1225              0        50.7874         18.279        3.19768
      0.05       310        27.4862        16.7258        70.2235              0        48.8548        17.6669        2.86042
      0.05       320        26.6112        16.2607        67.5946              0        47.1029        17.1111        2.56941
      0.05       330        25.8162        15.8348        65.2016              0        45.5089        16.6048        2.31655
      0.05       340        25.0909        15.4434        63.0142              0        44.0526         16.142        2.09537
      0.05       350        24.4267        15.0828        61.0058              0        42.7163        15.7176        1.90067
      0.06         0              0              0              0              0              0              0              0
      0.06        10        5.28676        3.50989        2.97999              0        4.13338        3.66904        5.28938
      0.06        20        5.35441        3.25287        3.17053              0        4.26247        3.41341        4.45411
      0.06        30        5.46114        3.07648        3.48685              0        4.47399        3.20965        4.34198
      0.06        40         5.6423        2.97463        4.03403              0        4.83816        3.08403        4.50537
      0.06        50        5.95049        2.96574        4.96887              0        5.45968        3.08079        4.84989
      0.06        60        6.46433        3.08382        6.52645              0        6.49539        3.25521        5.35656
      0.06        70        7.30105          3.382        9.05755              0         8.1793        3.67904        6.03503
      0.06        80         8.6195        3.87404         13.038              0        10.8288        4.41355        7.15835
      0.06        90        10.6221        4.69319        19.0745              0        14.8483        5.59236        8.64972
      0.06       100        13.5155        5.95393         27.786              0        20.6508        7.33682        10.5225
      0.06       110        17.4531        7.75153        39.6322              0        28.5427        9.74072        12.7978
      0.06       120        22.3267        10.0758        54.2882              0        38.3075        12.7434        15.4152
      0.06       130        27.6488        12.7399        70.2906              0        48.9697        16.0578        18.1638
      0.06       140         32.727        15.4347        85.5622              0        59.1446        19.2729        20.6331
      0.06       150        36.9588        17.8539        98.2944              0        67.6266        22.0221        22.2855
      0.06       160        40.0096        19.7891        107.484              0        73.7466        24.0887        22.6997
      0.06       170        41.8183        21.1541        112.946              0        77.3819        25.4139        21.8291
      0.06       180        42.5118        21.9611        115.061              0        78.7864        26.0531        20.0124
      0.06       190        42.3119        22.2844        114.495              0        78.4032        26.1242        17.7363
      0.06       200        41.4645        22.2266        111.984              0        76.7244        25.7679        15.4024
      0.06       210        40.1973        21.8945        108.213              0         74.205        25.1202        13.2449
      0.06       220        38.6976        21.3841        103.741              0        71.2192        24.2975        11.3594
      0.06       230        37.1057         20.773        98.9905              0        68.0481        23.3904        9.75907
      0.06       240        35.5183        20.1186        94.2507              0        64.8845        22.4635        8.41927
      0.06       250        33.9954        19.4603        89.7017              0        61.8486         21.559        7.30247
      0.06       260          32.57        18.8227        85.4421              0         59.006        20.7017        6.37055
      0.06       270        31.2562        18.2194        81.5141              0        56.3852        19.9037        5.58966
      0.06       280        30.0563        17.6569        77.9247              0        53.9905        19.1695        4.93146
      0.06       290        28.9658         17.137        74.6596              0        51.8127         18.498        4.37292
      0.06       300        27.9762        16.6586        71.6942              0        49.8352        17.8858        3.89558
      0.06       310        27.0781        16.2192        68.9994              0        48.0387        17.3278        3.48472
      0.06       320        26.2615        15.8156        66.5455              0        46.4035        16.8189        3.12859
      0.06       330        25.5171        15.4445        64.3044              0        44.9107        16.3537        2.81782
      0.06       340        24.8363        15.1025        62.2501              0        43.5432        15.9273        2.54489
      0.06       350        24.2113        14.7866        60.3598              0        42.2856        15.5353        2.30371
      0.07         0              0              0              0              0              0              0              0
      0.07        10        5.28659        3.44495        2.97947              0        4.13303        3.61498        6.11311
      0.07        20        5.35284        3.16766        3.16581              0        4.25933        3.33715        5.11046
      0.07        30        5.45557        2.97691        3.47016              0        4.46286        3.11557        4.95413
      0.07        40        5.62867        2.86259        3.99314              0        4.81091        2.97355        5.11879
      0.07        50        5.92315        2.84045        4.88686              0        5.40501        2.95299         5.4925
      0.07        60        6.41634        2.94186        6.38246              0         6.3994        3.10706        6.05137
      0.07        70        7.22516        3.21718        8.82989              0        8.02752        3.50629        6.80448
      0.07        80        8.51019        3.67025        12.7101              0        10.6101        4.20847        8.08354
      0.07        90        10.4801        4.43743        18.6483              0        14.5642        5.35283        9.78538
      0.07       100        13.3356        5.62666        27.2463              0         20.291        7.05557        11.9143
      0.07       110        17.1272         7.2853        38.6546              0        27.8909        9.34159        14.4874
      0.07       120        21.7066        9.38504         52.428              0        37.0673        12.1312        17.4236
      0.07       130        26.5918        11.7464        67.1198              0        46.8558        15.1464        20.4731
      0.07       140        31.1659        14.1034        80.8788              0        56.0223         18.026        23.1789
      0.07       150        34.9383        16.2123        92.2328              0        63.5855        20.4737        24.9698
      0.07       160        37.6619        17.9162         100.44              0        69.0512        22.3269        25.4197
      0.07       170        39.3108        19.1528        105.423              0        72.3669        23.5489         24.498
      0.07       180        40.0022        19.9332        107.532              0        73.7672        24.1891        22.5629
      0.07       190        39.9227        20.3138        107.327              0        73.6249        24.3438        20.1198
      0.07       200         39.275        20.3727        105.416              0        72.3454        24.1259        17.5895
      0.07       210        38.2468        20.1921        102.361              0        70.3039        23.6451         15.225
      0.07       220        36.9945        19.8474        98.6316              0        67.8131        22.9971        13.1361
      0.07       230        35.6381        19.4017        94.5878              0         65.113        22.2582        11.3452
      0.07       240        34.2632        18.9033        90.4854              0        62.3743        21.4849        9.83195
      0.07       250        32.9256        18.3869        86.4922              0        59.7089        20.7161        8.55989
      0.07       260        31.6584        17.8758        82.7072              0        57.1828        19.9761        7.49038
      0.07       270        30.4782         17.384        79.1802              0        54.8292        19.2786        6.58807
      0.07       280        29.3908        16.9195        75.9281              0        52.6595          18.63        5.82281
      0.07       290        28.3951        16.4856        72.9475              0        50.6713        18.0316        5.16976
      0.07       300         27.486        16.0831        70.2234              0        48.8547        17.4822        4.60875
      0.07       310        26.6566        15.7111        67.7348              0        47.1957        16.9786        4.12356
      0.07       320        25.8993        15.3677        65.4588              0        45.6791        16.5171        3.70113
      0.07       330        25.2066        15.0507        63.3728              0        44.2897        16.0937        3.33097
      0.07       340        24.5713        14.7578        61.4552              0        43.0132        15.7046        3.00458
      0.07       350        23.9868        14.4866        59.6864              0        41.8366         15.346        2.71508
      0.08         0              0              0              0              0              0              0              0
      0.08        10        5.28646        3.38333        2.97907              0        4.13276        3.56257        6.93197
      0.08        20        5.35158        3.08825        3.16204              0        4.25681        3.26465        5.75933
      0.08        30        5.45104        2.88573        3.45655              0         4.4538        3.02813        5.55622
      0.08        40        5.61734        2.76172        3.95915              0        4.78824         2.8732        5.71934
      0.08        50        5.89987        2.72936        4.81703              0        5.35845        2.83902        6.11901
      0.08        60        6.37423        2.81728        6.25615              0        6.31519        2.97605        6.72614
      0.08        70          7.156        3.07288        8.62241              0        7.88921        3.35269        7.54897
      0.08        80        8.40173        3.48873        12.3847              0        10.3932        4.01954        8.97955
      0.08        90        10.3215        4.20238        18.1726              0         14.247        5.11875        10.8855
      0.08       100        13.1143        5.31711        26.5822              0        19.8482        6.76501        13.2584
      0.08       110        16.7847        6.85903         37.627              0        27.2058        8.95418        16.1039
      0.08       120         21.076        8.75489         50.536              0         35.806        11.5401        19.3228
      0.08       130        25.5491        10.8467        63.9917              0        44.7704        14.2778        22.6264
      0.08       140        29.6693         12.911        76.3889              0        53.0291        16.8583        25.5186
      0.08       150        33.0418        14.7556        86.5434              0        59.7926        19.0445        27.4085
      0.08       160        35.4858        16.2616         93.912              0        64.6989        20.7144        27.8785
      0.08       170        36.9979        17.3838        98.4843              0        67.7411        21.8457        26.9176
      0.08       180        37.6847        18.1319        100.579              0        69.1321         22.482        24.8972
      0.08       190        37.7036        18.5489         100.67              0        69.1866        22.7021          22.33
      0.08       200        37.2229        18.6946        99.2594              0        68.2412        22.5968         19.647
      0.08       210        36.3983        18.6325        96.8155              0        66.6069        22.2554        17.1136
      0.08       220        35.3609         18.422        93.7309              0        64.5459        21.7567        14.8522
      0.08       230        34.2134         18.114        90.3134              0        62.2634        21.1649        12.8942
      0.08       240        33.0308        17.7489        86.7881              0        59.9094         20.529        11.2244
      0.08       250        31.8642        17.3567        83.3081              0        57.5862         19.884        9.80925
      0.08       260        30.7459        16.9586        79.9696              0        55.3577        19.2533        8.61045
      0.08       270        29.6936        16.5684        76.8263              0        53.2599         18.651        7.59219
      0.08       280        28.7154        16.1945         73.902              0        51.3087        18.0848        6.72328
      0.08       290         27.813        15.8414        71.2013              0        49.5071        17.5579         5.9776
      0.08       300        26.9838        15.5111         68.717              0        47.8504        17.0704        5.33371
      0.08       310        26.2234        15.2038        66.4352              0        46.3293         16.621        4.77419
      0.08       320         25.526        14.9188         64.339              0        44.9325        16.2071        4.28489
      0.08       330        24.8859        14.6549        62.4106              0        43.6482         15.826        3.85435
      0.08       340        24.2971        14.4106        60.6325              0        42.4648        15.4747        3.47324
      0.08       350        23.7542        14.1842        58.9883              0        41.3712        15.1503        3.13396
      0.09         0              0              0              0              0              0              0              0
      0.09        10        5.28635        3.32445        2.97875              0        4.13255        3.51149        7.74673
      0.09        20        5.35055        3.01368        3.15896              0        4.25476        3.19527        6.40185
      0.09        30        5.44727         2.8015        3.44526              0        4.44627        2.94622        6.14973
      0.09        40        5.60774        2.67001        3.93035              0        4.76905        2.78117        6.30886
      0.09        50         5.8798        2.62981        4.75681              0         5.3183        2.73637        6.73157
      0.09        60        6.33706        2.70682        6.14462              0        6.24084        2.85922        7.38343
      0.09        70        7.09274         2.9453        8.43263              0        7.76268         3.2152         8.2715
      0.09        80        8.29831        3.32718        12.0745              0        10.1864        3.84768        9.84924
      0.09        90        10.1566        3.98789        17.6778              0        13.9172        4.89555        11.9525
      0.09       100        12.8593        5.02425        25.8173              0        19.3383        6.46938        14.5576
      0.09       110        16.3983        6.45506        36.4679              0        26.4331        8.55858        17.6533
      0.09       120        20.4387        8.17736        48.6242              0        34.5315          10.97        21.1147
      0.09       130        24.5296        10.0311        60.9331              0        42.7313        13.4538        24.6253
      0.09       140        28.2431        11.8425        72.1105              0        50.1768        15.7688        27.6555
      0.09       150        31.2666        13.4608        81.2178              0        56.2422        17.7274        29.6077
      0.09       160        33.4692        14.7965        87.8623              0        60.6658        19.2382        30.0834
      0.09       170        34.8624        15.8164        92.0777              0          63.47        20.2887        29.0932
      0.09       180        35.5417        16.5286        94.1505              0        64.8461        20.9168        27.0159
      0.09       190        35.6407        16.9663        94.4809              0        65.0608         21.187        24.3631
      0.09       200        35.2997        17.1755          93.49              0        64.3949        21.1733         21.567
      0.09       210        34.6488        17.2054         91.567              0        63.1079        20.9483        18.9009
      0.09       220        33.7981         17.103        89.0425              0        61.4203         20.577        16.4971
      0.09       230        32.8354        16.9091        86.1794              0        59.5074        20.1134        14.3955
      0.09       240        31.8262         16.657        83.1743              0        57.5002        19.5997        12.5874
      0.09       250        30.8168        16.3727        80.1657              0        55.4913        19.0672        11.0422
      0.09       260        29.8375        16.0747        77.2447              0        53.5411        18.5375        9.72355
      0.09       270        28.9068        15.7761        74.4658              0        51.6863        18.0248        8.59591
      0.09       280        28.0339        15.4853        71.8573              0        49.9456        17.5373        7.62775
      0.09       290        27.2225        15.2074        69.4299              0        48.3262        17.0794        6.79223
      0.09       300        26.4723        14.9451        67.1823              0        46.8273        16.6526        6.06706
      0.09       310        25.7805        14.6996        65.1065              0        45.4435        16.2567        5.43389
      0.09       320        25.1433        14.4711        63.1908              0         44.167        15.8904        4.87773
      0.09       330        24.5562        14.2589        61.4216              0        42.9889        15.5517        4.38634
      0.09       340        24.0146        14.0622        59.7852              0        41.8999        15.2387        3.94967
      0.09       350        23.5141        13.8801        58.2681              0        40.8911        14.9491        3.55949
       0.1         0              0              0              0              0              0              0              0
       0.1        10        5.28626        3.26787        2.97849              0        4.13238         3.4615        8.55796
       0.1        20         5.3497        2.94324        3.15638              0        4.25304         3.1286        7.03887
       0.1        30        5.44405        2.72314        3.43558              0        4.43981        2.86897        6.73574
       0.1        40        5.59949        2.58601         3.9056              0        4.75254        2.69614        6.88865
       0.1        50        5.86228        2.53986        4.70425              0        5.28327        2.64316        7.33177
       0.1        60        6.30403        2.60807        6.04553              0        6.17478        2.75428        8.02509
       0.1        70        7.03522        2.83179        8.26006              0        7.64764        3.09186        8.97428
       0.1        80        8.20028        3.18262        11.7803              0        9.99031        3.69113        10.6947
       0.1        90        9.99147        3.79284        17.1825              0         13.587        4.68578        12.9882
       0.1       100        12.5858        4.75044        24.9969              0        18.7913        6.17767        15.8131
       0.1       110        15.9693        6.06968        35.1808              0         25.575        8.15454         19.138
       0.1       120        19.7926        7.64398         46.686              0        33.2393        10.4168         22.805
       0.1       130        23.5401        9.29153        57.9647              0        40.7524        12.6757        26.4735
       0.1       140        26.8912        10.8844        68.0546              0        47.4729        14.7558        29.5957
       0.1       150        29.6091        12.3088        76.2453              0        52.9272        16.5156        31.5768
       0.1       160        31.6018         13.497          82.26              0        56.9309        17.8872         32.045
       0.1       170        32.8899        14.4248        86.1604              0        59.5252        18.8648        31.0337
       0.1       180         33.559        15.0992        88.2025              0        60.8807         19.481        28.9239
       0.1       190        33.7226        15.5459        88.7266              0        61.2246        19.7891        26.2187
       0.1       200        33.4985        15.8004        88.0862              0        60.7923        19.8493        23.3453
       0.1       210        32.9956        15.9011        86.6073              0        59.8014        19.7211        20.5801
       0.1       220        32.3069         15.885        84.5687              0        58.4378        19.4582        18.0626
       0.1       230        31.5072        15.7848         82.195              0        56.8511        19.1058        15.8409
       0.1       240        30.6538        15.6282        79.6573              0        55.1555        18.7004        13.9125
       0.1       250         29.788        15.4367        77.0795              0        53.4338        18.2693        12.2513
       0.1       260        28.9381        15.2267        74.5463              0        51.7422        17.8324        10.8231
       0.1       270        28.1219        15.0101        72.1112              0        50.1165        17.4032        9.59357
       0.1       280        27.3498        14.7949         69.805              0        48.5774        16.9903        8.53144
       0.1       290        26.6266        14.5864        67.6422              0        47.1344        16.5987        7.60967
       0.1       300        25.9537        14.3878        65.6265              0        45.7901        16.2309         6.8055
       0.1       310        25.3298        14.2008        63.7545              0        44.5422        15.8875        6.10001
       0.1       320        24.7526        14.0262        62.0187              0        43.3857        15.5682        5.47757
       0.1       330        24.2188         13.864        60.4095              0        42.3142         15.272        4.92531
       0.1       340         23.725        13.7139        58.9163              0        41.3206        14.9974        4.43264
       0.1       350        23.2675        13.5753        57.5284              0         40.398         14.743        3.99079
      0.11         0              0              0              0              0              0              0              0
      0.11        10        5.28619        3.21329        2.97827              0        4.13223        3.41244        9.36608
      0.11        20        5.34897         2.8764        3.15419              0        4.25158        3.06429        7.67102
      0.11        30         5.4413        2.64991        3.42734              0        4.43432        2.79589        7.31509
      0.11        40         5.5923        2.50858        3.88403              0        4.73817        2.61715        7.45974
      0.11        50        5.84682        2.45802        4.65788              0        5.25235        2.55796        7.92083
      0.11        60        6.27444        2.51913        5.95676              0         6.1156        2.65941        8.65257
      0.11        70        6.98253        2.73005        8.10199              0        7.54226        2.98047        9.65898
      0.11        80        8.10756        3.05255        11.5022              0        9.80488        3.54822        11.5176
      0.11        90        9.82938        3.61548        16.6962              0        13.2628        4.48999        13.9935
      0.11       100        12.3058        4.49692        24.1569              0        18.2314        5.89637         17.025
      0.11       110        15.5203        5.70796         33.834              0        24.6772        7.75554        20.5575
      0.11       120        19.1188        7.14168        44.6645              0        31.8917        9.86709        24.3997
      0.11       130        22.5847        8.62015        55.0984              0        38.8416        11.9427        28.1779
      0.11       140        25.6148        10.0251        64.2255              0        44.9202        13.8165         31.348
      0.11       150        28.0647        11.2826        71.6122              0        49.8385        15.4022        33.3277
      0.11       160        29.8736        12.3425        77.0754              0        53.4745        16.6513        33.7768
      0.11       170         31.068        13.1874        80.6945              0        55.8812        17.5623        32.7507
      0.11       180        31.7242        13.8232         82.698              0        57.2111        18.1637        30.6288
      0.11       190        31.9392        14.2701        83.3766              0        57.6579        18.4994        27.8997
      0.11       200        31.8125        14.5558        83.0283              0        57.4204        18.6188        24.9806
      0.11       210        31.4357        14.7101        81.9275              0        56.6816        18.5707        22.1467
      0.11       220        30.8872        14.7623        80.3098              0        55.5985        18.3997        19.5425
      0.11       230        30.2312        14.7387        78.3669              0         54.299        18.1436        17.2235
      0.11       240        29.5172        14.6618        76.2475              0        52.8824        17.8335        15.1931
      0.11       250         28.782        14.5497        74.0616              0        51.4218        17.4934        13.4301
      0.11       260        28.0515        14.4165        71.8866              0         49.969        17.1411        11.9033
      0.11       270        27.3428        14.2726        69.7738              0        48.5583        16.7893          10.58
      0.11       280        26.6664        14.1256        67.7548              0        47.2106        16.4466        9.42989
      0.11       290        26.0281        13.9807        65.8467              0        45.9374        16.1182        8.42616
      0.11       300        25.4304        13.8412        64.0566              0        44.7435        15.8071        7.54594
      0.11       310        24.8733        13.7092        62.3849              0        43.6291         15.515        6.77001
      0.11       320        24.3555        13.5858        60.8274              0        42.5915         15.242        6.08236
      0.11       330         23.875        13.4717        59.3779              0        41.6264        14.9879        5.46969
      0.11       340        23.4291        13.3667        58.0286              0        40.7289        14.7518        4.92096
      0.11       350        23.0152        13.2708        56.7713              0        39.8933        14.5326          4.427
      0.12         0              0              0              0              0              0              0              0
      0.12        10        5.28613        3.16047        2.97809              0        4.13211        3.36419        10.1714
      0.12        20        5.34834        2.81274        3.15231              0        4.25033        3.00213         8.2988
      0.12        30         5.4389        2.58116        3.42013              0        4.42952        2.72648        7.88842
      0.12        40        5.58596        2.43687          3.865              0        4.72548        2.54341        8.02291
      0.12        50        5.83305        2.38314        4.61656              0         5.2248        2.47966        8.49969
      0.12        60        6.24766        2.43852        5.87643              0        6.06204        2.57308        9.26699
      0.12        70        6.93422        2.63837        7.95707              0        7.44564        2.87954        10.3269
      0.12        80        8.02013        2.93509        11.2399              0        9.63002        3.41757         12.319
      0.12        90        9.67201        3.45405        16.2241              0        12.9481        4.30786        14.9692
      0.12       100        12.0264        4.26335        23.3186              0        17.6725        5.62859        18.1935
      0.12       110        15.0553        5.36785        32.4388              0         23.747        7.36264        21.9129
      0.12       120        18.4251        6.66907        42.5834              0        30.5042        9.32423        25.9017
      0.12       130        21.6518        8.00501        52.2999              0        36.9758        11.2452         29.752
      0.12       140        24.4132        9.25348        60.6207              0        42.5169        12.9469        32.9236
      0.12       150        26.6281        10.3673        67.3022              0        46.9651        14.3802        34.8743
      0.12       160         28.275        11.3153        72.2797              0        50.2774        15.5207        35.2939
      0.12       170        29.3849        12.0854        75.6453              0        52.5151        16.3707        34.2581
      0.12       180         30.026        12.6828        77.6034              0        53.8147        16.9549        32.1405
      0.12       190        30.2815        13.1236        78.4033              0        54.3424        17.3097        29.4116
      0.12       200        30.2356        13.4292        78.2976              0        54.2666         17.476        26.4741
      0.12       210        29.9658        13.6234        77.5179              0        53.7418         17.494        23.5987
      0.12       220        29.5386        13.7291        76.2638              0        52.9012        17.4005        20.9329
      0.12       230        29.0087        13.7675        74.6993              0         51.854        17.2273         18.538
      0.12       240         28.419        13.7567        72.9529              0         50.686        17.0008        16.4235
      0.12       250        27.8021        13.7119        71.1218              0         49.462        16.7418         14.573
      0.12       260        27.1813        13.6451        69.2759              0        48.2286        16.4663        12.9588
      0.12       270        26.5727        13.5652        67.4635              0        47.0181        16.1857        11.5505
      0.12       280        25.9867        13.4793        65.7158              0        45.8513        15.9085         10.319
      0.12       290        25.4296        13.3921        64.0513              0        44.7405        15.6398        9.23819
      0.12       300        24.9046        13.3071        62.4793              0         43.692        15.3832        8.28542
      0.12       310        24.4127        13.2264         61.003              0        42.7078        15.1407        7.44148
      0.12       320        23.9535        13.1514        59.6213              0        41.7874         14.913        6.69017
      0.12       330        23.5258        13.0831        58.3304              0        40.9281        14.7004        6.01795
      0.12       340        23.1279        13.0217        57.1251              0        40.1265        14.5024        5.41347
      0.12       350        22.7578        12.9673        55.9992              0        39.3785        14.3187        4.86725
      0.13         0              0              0              0              0              0              0              0
      0.13        10        5.28608        3.10921        2.97793              0          4.132        3.31666        10.9743
      0.13        20        5.34779        2.75195        3.15066              0        4.24923        2.94193        8.92261
      0.13        30        5.43678        2.51642        3.41377              0        4.42527        2.66038        8.45625
      0.13        40        5.58032         2.3702        3.84809              0        4.71421        2.47436        8.57881
      0.13        50        5.82065        2.31431        4.57936              0            5.2        2.40737        9.06911
      0.13        60        6.22334        2.36512        5.80347              0         6.0134        2.49422        9.86924
      0.13        70        6.88958        2.55526        7.82316              0        7.35637        2.78754        10.9792
      0.13        80        7.93783        2.82859         10.993              0        9.46541        3.29796        13.0999
      0.13        90        9.51989        3.30671        15.7677              0        12.6438        4.13847        15.9158
      0.13       100        11.7534         4.0492        22.4995              0        17.1264        5.37666        19.3185
      0.13       110        14.5915        5.05248        31.0473              0        22.8194        6.98536        23.2037
      0.13       120        17.7441        6.23388        40.5404              0        29.1423        8.80671        27.3093
      0.13       130        20.7452        7.44114        49.5798              0        35.1625        10.5834        31.2005
      0.13       140        23.2829        8.55946        57.2297              0        40.2563        12.1419        34.3377
      0.13       150        25.2928        9.54977        63.2964              0        44.2946        13.4424        36.2324
      0.13       160        26.7968        10.3999        67.8449              0        47.3208        14.4866         36.613
      0.13       170        27.8301        11.1025        70.9807              0        49.4054        15.2803        35.5709
      0.13       180        28.4541        11.6624        72.8876              0        50.6708        15.8455        33.4707
      0.13       190        28.7407        12.0923        73.7809              0        51.2608        16.2127        30.7615
      0.13       200        28.7616        12.4095        73.8754              0        51.3185        16.4156        27.8289
      0.13       210        28.5824        12.6324        73.3677              0         50.975        16.4876         24.936
      0.13       220        28.2597        12.7794        72.4272              0        50.3434        16.4591        22.2313
      0.13       230        27.8402        12.8674        71.1939              0        49.5171        16.3569        19.7806
      0.13       240        27.3611        12.9111        69.7791              0        48.5701        16.2033        17.5992
      0.13       250        26.8508        12.9229        68.2679              0        47.5593        16.0163        15.6754
      0.13       260        26.3303        12.9129         66.723              0        46.5267          15.81        13.9852
      0.13       270        25.8145        12.8891        65.1891              0        45.5018        15.5947         12.501
      0.13       280        25.3135        12.8573        63.6961              0        44.5048        15.3781        11.1951
      0.13       290        24.8335        12.8222        62.2629              0        43.5482        15.1657        10.0425
      0.13       300        24.3784        12.7869        60.9006              0        42.6395        14.9609         9.0212
      0.13       310        23.9497        12.7538        59.6141              0        41.7819        14.7661        8.11212
      0.13       320        23.5479        12.7242        58.4046              0        40.9762        14.5824        7.29913
      0.13       330        23.1725        12.6993        57.2704              0        40.2214        14.4104        6.56859
      0.13       340        22.8223        12.6797        56.2083              0        39.5153        14.2503        5.90901
      0.13       350        22.4961        12.6656        55.2141              0        38.8551        14.1019        5.31071
      0.14         0              0              0              0              0              0              0              0
      0.14        10        5.28603        3.05938         2.9778              0        4.13191        3.26978        11.7748
      0.14        20        5.34731        2.69377        3.14922              0        4.24826        2.88356        9.54278
      0.14        30        5.43489        2.45529         3.4081              0         4.4215        2.59733        9.01899
      0.14        40        5.57528        2.30803        3.83296              0        4.70412        2.40952        9.12794
      0.14        50        5.80942        2.25082        4.54567              0        5.17754        2.34038         9.6297
      0.14        60        6.20105        2.29796        5.73659              0        5.96882        2.42182        10.4601
      0.14        70        6.84822        2.47963        7.69906              0        7.27364        2.70341        11.6168
      0.14        80        7.85976         2.7315        10.7588              0        9.30928        3.18782         13.861
      0.14        90        9.37327        3.17193        15.3279              0        12.3506         3.9809        16.8338
      0.14       100        11.4861        3.85201        21.6979              0         16.592        5.13887        20.4001
      0.14       110         14.142        4.76337        29.6991              0        21.9206        6.63019         24.429
      0.14       120        17.0661        5.82861        38.5065              0        27.7863        8.30692        28.6263
      0.14       130        19.8521        6.91882        46.9005              0        33.3763         9.9475        32.5327
      0.14       140        22.2074        7.92947        54.0032              0        38.1053        11.3891        35.6106
      0.14       150         24.052        8.81829        59.5741              0        41.8131        12.5818         37.419
      0.14       160        25.4297        9.58283        63.7438              0        44.5868        13.5404         37.751
      0.14       170        26.3933        10.2245        66.6704              0        46.5318        14.2822        36.7045
      0.14       180        26.9988        10.7481        68.5217              0        47.7602        14.8272        34.6318
      0.14       190        27.3087        11.1641        69.4849              0        48.3968        15.2011        31.9582
      0.14       200        27.3844        11.4862        69.7439              0        48.5641        15.4321        29.0497
      0.14       210        27.2817         11.729        69.4657              0        48.3737        15.5478        26.1601
      0.14       220        27.0489        11.9073        68.7948              0        47.9218        15.5737        23.4367
      0.14       230        26.7258        12.0345        67.8507              0        47.2883         15.532        20.9489
      0.14       240        26.3446        12.1225        66.7296              0        46.5371        15.4417        18.7168
      0.14       250        25.9301        12.1816        65.5056              0        45.7179        15.3183        16.7335
      0.14       260        25.5009          12.22        64.2349              0        44.8679        15.1738        14.9788
      0.14       270        25.0708        12.2446        62.9577              0        44.0142        15.0178        13.4277
      0.14       280         24.649        12.2606        61.7026              0        43.1758        14.8574        12.0548
      0.14       290         24.242        12.2721        60.4882              0        42.3651        14.6975        10.8362
      0.14       300        23.8536         12.282        59.3262              0        41.5899        14.5417         9.7507
      0.14       310         23.486        12.2926         58.223              0        40.8545        14.3924        8.77976
      0.14       320        23.1401        12.3053        57.1812              0        40.1606        14.2512        7.90745
      0.14       330         22.816        12.3214         56.201              0        39.5085         14.119        7.12021
      0.14       340        22.5132        12.3416        55.2808              0         38.897        13.9961         6.4065
      0.14       350        22.2307        12.3662        54.4179              0        38.3243        13.8826        5.75656
      0.15         0              0              0              0              0              0              0              0
      0.15        10        5.28599        3.01086        2.97768              0        4.13184        3.22352        12.5733
      0.15        20        5.34688        2.63799        3.14793              0         4.2474        2.82691        10.1596
      0.15        30        5.43319        2.39744        3.40301              0         4.4181        2.53709        9.57699
      0.15        40        5.57067        2.24987        3.81913              0         4.6949        2.34845        9.67074
      0.15        50        5.79916        2.19204         4.5149              0        5.15703        2.27811         10.182
      0.15        60        6.18052         2.2363          5.675              0        5.92776        2.35515        11.0401
      0.15        70        6.80967        2.41049        7.58341              0        7.19654        2.62617        12.2403
      0.15        80          7.786        2.64281        10.5375              0        9.16176        3.08644        14.6029
      0.15        90        9.23249        3.04841        14.9056              0         12.069        3.83439        17.7234
      0.15       100        11.2269         3.6706          20.92              0        16.0734        4.91542        21.4387
      0.15       110        13.7052         4.4971        28.3884              0        21.0468        6.29451        25.5899
      0.15       120        16.4133        5.45739         36.548              0        26.4807        7.83658        29.8533
      0.15       130        19.0054        6.44487        44.3604              0        31.6829        9.35538        33.7473
      0.15       140        21.1926        7.35948        50.9588              0        36.0757        10.6897        36.7472
      0.15       150        22.8976         8.1621        56.1108              0        39.5042        11.7908        38.4538
      0.15       160        24.1651        8.85215        59.9499              0        42.0575        12.6741        38.7255
      0.15       170        25.0652        9.43889        62.6861              0        43.8756        13.3682        37.6749
      0.15       180        25.6511        9.92783        64.4788              0        45.0649        13.8922        35.6367
      0.15       190        25.9778        10.3278        65.4924              0        45.7351        14.2684         33.011
      0.15       200        26.0982        10.6498        65.8853              0        45.9917        14.5203        30.1424
      0.15       210        26.0599        10.9057        65.8002              0          45.93        14.6711        27.2737
      0.15       220         25.904         11.107        65.3602              0        45.6321        14.7421        24.5496
      0.15       230        25.6649        11.2647         64.668              0        45.1664        14.7517        22.0415
      0.15       240        25.3701        11.3884        63.8061              0        44.5881         14.716         19.774
      0.15       250        25.0413        11.4864        62.8392              0        43.9402        14.6483        17.7443
      0.15       260        24.6949        11.5657        61.8169              0        43.2559        14.5592        15.9362
      0.15       270        24.3434        11.6319        60.7755              0        42.5595        14.4568        14.3275
      0.15       280        23.9953        11.6897        59.7415              0        41.8684        14.3477        12.8951
      0.15       290        23.6568        11.7425        58.7327              0        41.1948        14.2365        11.6165
      0.15       300        23.3319        11.7931        57.7611              0        40.5465        14.1268        10.4716
      0.15       310         23.023        11.8437        56.8339              0        39.9284         14.021         9.4424
      0.15       320        22.7313        11.8956        55.9549              0        39.3431        13.9206        8.51347
      0.15       330        22.4574        11.9501        55.1253              0        38.7914        13.8269        7.67144
      0.15       340        22.2012         12.008        54.3451              0        38.2732        13.7404        6.90487
      0.15       350        21.9623        12.0699        53.6127              0        37.7875        13.6615          6.204
      0.16         0              0              0              0              0              0              0              0
      0.16        10        5.28596        2.96354        2.97757              0        4.13177        3.17782        13.3698
      0.16        20        5.34649        2.58442        3.14677              0        4.24663        2.77188        10.7732
      0.16        30        5.43166         2.3426        3.39842              0        4.41504        2.47947        10.1306
      0.16        40        5.56645        2.19535        3.80646              0        4.68645        2.29081        10.2076
      0.16        50        5.78973        2.13749        4.48662              0        5.13817        2.22008        10.7264
      0.16        60        6.16148        2.17949         5.6179              0        5.88969        2.29353        11.6099
      0.16        70         6.7736        2.34707        7.47522              0        7.12441        2.55502        12.8504
      0.16        80        7.71592        2.56145        10.3273              0        9.02159         2.9927        15.3263
      0.16        90         9.0973        2.93493           14.5              0        11.7986        3.69796        18.5851
      0.16       100        10.9776        3.50399        20.1723              0        15.5749        4.70648        22.4343
      0.16       110        13.2843        4.25246        27.1258              0         20.205        5.97908        26.6872
      0.16       120        15.7929        5.11923        34.6869              0        25.2399         7.3983        30.9908
      0.16       130        18.1839        6.00776         41.896              0        30.0399        8.79266        34.8545
      0.16       140        20.2205        6.83786        48.0426              0        34.1315        10.0311        37.7638
      0.16       150        21.8136          7.569        52.8587              0        37.3361        11.0577        39.3595
      0.16       160        22.9942        8.19738        56.4374              0        39.7158        11.8803         39.554
      0.16       170        23.8369        8.73481        59.0012              0         41.419        12.5305        38.4978
      0.16       180        24.4027        9.19096        60.7336              0        42.5681        13.0333        36.4987
      0.16       190        24.7409        9.57361        61.7816              0        43.2612        13.4082        33.9299
      0.16       200        24.8973        9.89181        62.2826              0        43.5899        13.6753        31.1139
      0.16       210        24.9128        10.1551        62.3591              0        43.6359         13.854        28.2808
      0.16       220        24.8228        10.3729        62.1165              0        43.4696        13.9618        25.5713
      0.16       230        24.6565        10.5539        61.6427              0        43.1496        14.0147        23.0582
      0.16       240        24.4377        10.7059        61.0089              0        42.7233         14.026        20.7692
      0.16       250        24.1853        10.8357        60.2712              0        42.2282        14.0069        18.7056
      0.16       260        23.9137        10.9491        59.4732              0        41.6934        13.9668        16.8549
      0.16       270         23.634        11.0508        58.6474              0        41.1407        13.9127        15.1978
      0.16       280        23.3541        11.1447        57.8178              0         40.586        13.8504        13.7134
      0.16       290        23.0797         11.234        57.0015              0        40.0406        13.7843         12.381
      0.16       300        22.8149        11.3211        56.2101              0        39.5125        13.7176        11.1816
      0.16       310         22.562        11.4079        55.4511              0        39.0065        13.6528        10.0981
      0.16       320        22.3227        11.4958         54.729              0        38.5259        13.5915        9.11561
      0.16       330        22.0977        11.5862        54.0462              0         38.072         13.535          8.221
      0.16       340        21.8874        11.6797        53.4034              0        37.6454        13.4841         7.4031
      0.16       350        21.6915        11.7771        52.8002              0        37.2458        13.4391        6.65227
      0.17         0              0              0              0              0              0              0              0
      0.17        10        5.28593        2.91736        2.97748              0         4.1317        3.13269        14.1645
      0.17        20        5.34615        2.53292        3.14573              0        4.24594        2.71842        11.3839
      0.17        30        5.43026        2.29054        3.39422              0        4.41224        2.42431        10.6799
      0.17        40        5.56263        2.14419        3.79502              0        4.67882        2.23644        10.7387
      0.17        50        5.78103        2.08674         4.4605              0        5.12076        2.16589        11.2634
      0.17        60        6.14375        2.12702         5.5647              0        5.85423        2.23643        12.1698
      0.17        70        6.73968        2.28871        7.37345              0        7.05656        2.48926        13.4477
      0.17        80        7.64896        2.48652        10.1264              0        8.88768        2.90566        16.0316
      0.17        90        8.96726        2.83032        14.1099              0        11.5386        3.57057        19.4192
      0.17       100        10.7382        3.35067         19.454              0        15.0961        4.51099        23.3871
      0.17       110        12.8847        4.02898         25.927              0        19.4058        5.68573        27.7211
      0.17       120        15.1979         4.8088        32.9017              0        24.0498        6.98632         32.044
      0.17       130        17.4162        5.61319         39.593              0        28.5046         8.2744        35.8538
      0.17       140        19.3117        6.36707        45.3162              0         32.314        9.42343         38.659
      0.17       150        20.8016        7.03411        49.8227              0        35.3121        10.3814         40.141
      0.17       160        21.9084         7.6091        53.1797              0         37.544        11.1516        40.2554
      0.17       170           22.7        8.10264        55.5907              0        39.1453        11.7623        39.1884
      0.17       180        23.2457        8.52804        57.2626              0        40.2541        12.2439        37.2307
      0.17       190         23.591        8.89275         58.332              0        40.9615        12.6149        34.7251
      0.17       200        23.7762        9.20442        58.9192              0        41.3477        12.8923        31.9712
      0.17       210        23.8366        9.47087        59.1303              0        41.4835        13.0926        29.1858
      0.17       220        23.8025         9.6997        59.0558              0        41.4291        13.2306        26.5043
      0.17       230        23.6992        9.89795        58.7709              0        41.2351        13.3196        23.9994
      0.17       240        23.5471         10.072        58.3371              0        40.9421         13.371        21.7016
      0.17       250        23.3625        10.2274         57.803              0        40.5828        13.3942        19.6159
      0.17       260        23.1582         10.369        57.2067              0        40.1825        13.3972        17.7328
      0.17       270        22.9439        10.5006        56.5772              0        39.7605        13.3862        16.0363
      0.17       280        22.7268        10.6256         55.936              0        39.3314        13.3664        14.5075
      0.17       290        22.5122        10.7468        55.2989              0        38.9055        13.3417        13.1276
      0.17       300        22.3039        10.8662        54.6771              0        38.4905        13.3151        11.8789
      0.17       310        22.1044        10.9857        54.0781              0        38.0912        13.2888        10.7453
      0.17       320        21.9153        11.1066        53.5069              0        37.7111        13.2647        9.71238
      0.17       330        21.7378        11.2302        52.9664              0        37.3521         13.244        8.76767
      0.17       340        21.5722        11.3572         52.458              0        37.0151        13.2275        7.90023
      0.17       350        21.4188        11.4884        51.9821              0        36.7004        13.2159        7.10062
